#Acq. time (s)=	10
#Accumulations=	5
#AutoExposure=	Off
#Spike filter=	Multiple accum.
#Readout mode=	Signal
#DeNoise=	Off
#ICS correction=	Off
#Dark correction=	Off
#Inst. Process=	Off
#Detector Gain=	High Sensitivity
#Detector ADC=	45 kHz 
#Detector temperature (°C)=	-50.35
#Instrument=	OSD
#Detector=	Syncerity
#Grating=	685
#Laser (nm)=	785 
#Spectro (cm-¹)=	2019.74
#Laser power=	60
#E-Cal_Neon=	0
#Full time(s)=	51
#AC=	Not calibrated
#Project=	A
#Sample=	B
#Site=	C
#Title=	SERSxMastCells_1
#Remark=	
#Date=	04.10.2024 11:29
#Acquired=	04.10.2024 11:29:49
#AxisType[0]=Intens
#AxisUnit[0]=Cnt
#AxisType[1]=Spectr
#AxisUnit[1]=1/cm
3513.15	331.5
3511.88	335
3510.6	317.5
3509.33	318
3508.05	302
3506.77	307.5
3505.49	302.5
3504.22	294
3502.94	270
3501.66	267
3500.38	265.5
3499.1	273.5
3497.82	265
3496.54	251
3495.26	257
3493.98	256
3492.7	246.5
3491.42	251
3490.14	243.5
3488.85	232.5
3487.57	236
3486.29	238
3485.01	239
3483.72	233.5
3482.44	239
3481.15	231
3479.87	241
3478.59	239
3477.3	244
3476.02	240.5
3474.73	257.5
3473.44	250
3472.16	255
3470.87	264
3469.58	257
3468.3	258.5
3467.01	272
3465.72	267.5
3464.43	262
3463.14	278
3461.85	272
3460.56	288
3459.28	282
3457.99	287
3456.69	292
3455.4	288
3454.11	287.5
3452.82	281.5
3451.53	289.5
3450.24	281.5
3448.95	285
3447.65	277
3446.36	277
3445.07	270.5
3443.77	274
3442.48	257
3441.18	260
3439.89	245
3438.59	246.5
3437.3	239
3436	227.5
3434.71	231.5
3433.41	218.5
3432.11	217.5
3430.81	202
3429.52	207
3428.22	202.5
3426.92	207
3425.62	192
3424.32	187.5
3423.02	184
3421.72	189
3420.42	191.5
3419.12	185
3417.82	182.5
3416.52	193
3415.22	197
3413.92	198
3412.62	198
3411.31	205.5
3410.01	211
3408.71	207
3407.41	213
3406.1	210.5
3404.8	214
3403.49	217
3402.19	216
3400.88	225
3399.58	216
3398.27	233.5
3396.97	230.5
3395.66	228.5
3394.35	230
3393.05	232.5
3391.74	245
3390.43	230.5
3389.12	232
3387.82	217
3386.51	227.5
3385.2	223.5
3383.89	230
3382.58	218
3381.27	217
3379.96	224.5
3378.65	212.5
3377.34	200
3376.02	197.5
3374.71	200
3373.4	207
3372.09	197
3370.77	187.5
3369.46	178
3368.15	178
3366.83	175.5
3365.52	167
3364.2	163
3362.89	167.5
3361.57	153
3360.26	160
3358.94	154
3357.63	152.5
3356.31	149.5
3354.99	158.5
3353.67	150
3352.36	159
3351.04	157
3349.72	147.5
3348.4	173.5
3347.08	172.5
3345.76	156
3344.44	171.5
3343.12	164
3341.8	173.5
3340.48	171.5
3339.16	177
3337.84	177
3336.52	187
3335.2	180.5
3333.87	192
3332.55	183
3331.23	192.5
3329.9	196.5
3328.58	182.5
3327.25	185.5
3325.93	189.5
3324.61	184.5
3323.28	185
3321.95	192.5
3320.63	187
3319.3	186
3317.98	171.5
3316.65	170
3315.32	170
3313.99	169
3312.66	161.5
3311.34	154.5
3310.01	147
3308.68	146
3307.35	139
3306.02	142.5
3304.69	147.5
3303.36	136.5
3302.03	140
3300.7	122.5
3299.36	125.5
3298.03	129.5
3296.7	123.5
3295.37	125
3294.04	126
3292.7	124
3291.37	127
3290.03	123
3288.7	128
3287.36	128.5
3286.03	127
3284.69	129
3283.36	129.5
3282.02	133
3280.69	129
3279.35	138.5
3278.01	130.5
3276.68	136.5
3275.34	144
3274	135
3272.66	144
3271.32	155
3269.98	152.5
3268.64	151.5
3267.3	149
3265.96	155
3264.62	167
3263.28	162
3261.94	155
3260.6	153
3259.26	162
3257.92	160
3256.57	152
3255.23	158
3253.89	151.5
3252.54	149
3251.2	149.5
3249.85	145
3248.51	136
3247.16	139.5
3245.82	136
3244.47	127.5
3243.13	133
3241.78	128
3240.43	114.5
3239.09	115.5
3237.74	122.5
3236.39	119
3235.04	104
3233.69	111
3232.34	112.5
3230.99	108
3229.65	101.5
3228.3	112.5
3226.94	110.5
3225.59	107.5
3224.24	106
3222.89	110.5
3221.54	111
3220.19	113
3218.84	111
3217.48	124
3216.13	114
3214.78	117
3213.42	119
3212.07	117.5
3210.71	129.5
3209.36	130
3208	138
3206.65	129
3205.29	137.5
3203.93	140
3202.58	130.5
3201.22	133.5
3199.86	137
3198.51	134.5
3197.15	137.5
3195.79	130.5
3194.43	135.5
3193.07	134
3191.71	131.5
3190.35	125.5
3188.99	122
3187.63	124.5
3186.27	123
3184.91	122.5
3183.55	113
3182.19	116
3180.82	116
3179.46	106.5
3178.1	107
3176.73	106
3175.37	103.5
3174.01	95
3172.64	102
3171.28	107.5
3169.91	107
3168.55	95.5
3167.18	107.5
3165.81	96
3164.45	102.5
3163.08	101.5
3161.71	104
3160.35	104
3158.98	110
3157.61	107.5
3156.24	103.5
3154.87	113
3153.5	104
3152.13	110.5
3150.76	114.5
3149.39	115.5
3148.02	113
3146.65	115
3145.28	121.5
3143.91	124.5
3142.54	128.5
3141.16	125
3139.79	124.5
3138.42	129
3137.04	129
3135.67	124.5
3134.29	136.5
3132.92	132
3131.54	134
3130.17	135
3128.79	130.5
3127.42	135.5
3126.04	133
3124.66	134.5
3123.29	129.5
3121.91	126
3120.53	126
3119.15	125
3117.77	127
3116.39	127
3115.02	118
3113.64	124
3112.26	123.5
3110.88	117
3109.49	126.5
3108.11	118
3106.73	122
3105.35	120.5
3103.97	123.5
3102.59	119
3101.2	121
3099.82	124.5
3098.44	128
3097.05	136
3095.67	131.5
3094.28	133
3092.9	133.5
3091.51	141
3090.13	142
3088.74	142
3087.35	137
3085.97	144.5
3084.58	156.5
3083.19	150
3081.8	157.5
3080.42	159.5
3079.03	160
3077.64	159
3076.25	171
3074.86	168
3073.47	167
3072.08	176
3070.69	172
3069.3	172
3067.91	171
3066.51	176.5
3065.12	174.5
3063.73	181
3062.34	177.5
3060.94	186.5
3059.55	177.5
3058.16	187
3056.76	189.5
3055.37	180
3053.97	190.5
3052.58	181.5
3051.18	187
3049.78	186.5
3048.39	195.5
3046.99	202
3045.59	201
3044.2	203
3042.8	211
3041.4	200
3040	224
3038.6	218.5
3037.2	211.5
3035.8	228.5
3034.4	238
3033	246
3031.6	259
3030.2	257
3028.8	271
3027.4	279
3025.99	283
3024.59	287
3023.19	308
3021.78	319.5
3020.38	339
3018.98	346
3017.57	349
3016.17	373.5
3014.76	381
3013.36	398.5
3011.95	408
3010.54	410.5
3009.14	430
3007.73	436
3006.32	452.5
3004.92	453
3003.51	458.5
3002.1	465.5
3000.69	471
2999.28	453.5
2997.87	465.5
2996.46	453
2995.05	441.5
2993.64	430
2992.23	436
2990.82	441
2989.41	417.5
2988	420.5
2986.58	412
2985.17	426
2983.76	413.5
2982.34	413.5
2980.93	418
2979.52	421
2978.1	426.5
2976.69	436
2975.27	433.5
2973.86	446
2972.44	467
2971.02	501
2969.61	534
2968.19	551.5
2966.77	593.5
2965.35	639
2963.94	723
2962.52	788.5
2961.1	893.5
2959.68	1004.5
2958.26	1135.5
2956.84	1247.5
2955.42	1436
2954	1601
2952.58	1791.5
2951.16	1981
2949.73	2207.5
2948.31	2363.5
2946.89	2523
2945.47	2663
2944.04	2739
2942.62	2800.5
2941.19	2747.5
2939.77	2706.5
2938.34	2522
2936.92	2371
2935.49	2189
2934.07	1983.5
2932.64	1736
2931.22	1540
2929.79	1341
2928.36	1185
2926.93	1050
2925.5	933
2924.08	851
2922.65	751
2921.22	665
2919.79	634.5
2918.36	579
2916.93	541.5
2915.5	512
2914.07	473
2912.64	441.5
2911.2	424
2909.77	391
2908.34	393
2906.91	364.5
2905.47	351
2904.04	346
2902.61	335
2901.17	297
2899.74	329.5
2898.3	307
2896.87	298.5
2895.43	285
2893.99	298.5
2892.56	298.5
2891.12	294.5
2889.68	284.5
2888.25	288
2886.81	279.5
2885.37	289.5
2883.93	283.5
2882.49	278
2881.05	279.5
2879.61	274
2878.17	273.5
2876.73	275.5
2875.29	267.5
2873.85	250
2872.41	264.5
2870.97	255
2869.52	243.5
2868.08	241
2866.64	236
2865.19	222
2863.75	232
2862.31	222.5
2860.86	215
2859.42	212
2857.97	210
2856.52	201
2855.08	203.5
2853.63	201
2852.19	212.5
2850.74	186
2849.29	210
2847.84	196.5
2846.39	204
2844.95	191
2843.5	179
2842.05	181.5
2840.6	182
2839.15	178
2837.7	172.5
2836.25	167.5
2834.79	162
2833.34	162
2831.89	149.5
2830.44	136
2828.99	146
2827.53	138
2826.08	128
2824.62	137
2823.17	121.5
2821.72	120
2820.26	121.5
2818.81	128
2817.35	124
2815.89	114
2814.44	111.5
2812.98	106
2811.52	105
2810.06	104
2808.61	108
2807.15	104.5
2805.69	106.5
2804.23	107
2802.77	107.5
2801.31	98.5
2799.85	100.5
2798.39	100.5
2796.93	101
2795.47	107.5
2794.01	101
2792.54	99
2791.08	96.5
2789.62	98
2788.16	103
2786.69	104.5
2785.23	95
2783.76	93
2782.3	101
2780.83	100.5
2779.37	103
2777.9	97
2776.44	106
2774.97	102
2773.5	104
2772.04	104
2770.57	109.5
2769.1	107
2767.63	107
2766.16	107.5
2764.69	112
2763.22	117
2761.75	114
2760.28	110
2758.81	115.5
2757.34	122
2755.87	129
2754.4	128
2752.93	134
2751.45	133
2749.98	145.5
2748.51	151.5
2747.03	160.5
2745.56	169
2744.09	186
2742.61	181
2741.14	197
2739.66	203
2738.18	207.5
2736.71	212
2735.23	212.5
2733.75	222
2732.28	230
2730.8	209.5
2729.32	213
2727.84	199
2726.36	179
2724.88	166
2723.4	172.5
2721.92	150
2720.44	144
2718.96	139.5
2717.48	126
2716	127.5
2714.52	120.5
2713.04	115.5
2711.55	113
2710.07	110
2708.59	105
2707.1	104
2705.62	108.5
2704.13	101.5
2702.65	104.5
2701.16	92
2699.68	106
2698.19	99
2696.7	102.5
2695.22	104
2693.73	91
2692.24	99.5
2690.76	99
2689.27	93.5
2687.78	92.5
2686.29	94.5
2684.8	100.5
2683.31	96.5
2681.82	94.5
2680.33	98
2678.84	95.5
2677.35	95
2675.85	93
2674.36	92
2672.87	93.5
2671.38	92.5
2669.88	94.5
2668.39	94
2666.9	92.5
2665.4	93
2663.91	93
2662.41	85.5
2660.92	99.5
2659.42	85
2657.92	94.5
2656.43	103
2654.93	103
2653.43	95
2651.93	97
2650.44	98.5
2648.94	97
2647.44	96.5
2645.94	97
2644.44	100.5
2642.94	93
2641.44	90
2639.94	96
2638.44	95
2636.93	101.5
2635.43	99.5
2633.93	96.5
2632.43	100
2630.92	101.5
2629.42	99.5
2627.92	103.5
2626.41	106
2624.91	100.5
2623.4	100.5
2621.9	105
2620.39	109
2618.88	108.5
2617.38	103.5
2615.87	101.5
2614.36	110.5
2612.86	100
2611.35	110.5
2609.84	102.5
2608.33	105
2606.82	107.5
2605.31	105.5
2603.8	109.5
2602.29	97.5
2600.78	96.5
2599.27	108.5
2597.76	103.5
2596.24	103
2594.73	105
2593.22	105
2591.71	109
2590.19	98
2588.68	112
2587.16	102.5
2585.65	101
2584.13	107.5
2582.62	108.5
2581.1	106.5
2579.59	106.5
2578.07	108.5
2576.55	105
2575.04	104.5
2573.52	111.5
2572	112
2570.48	105.5
2568.96	110.5
2567.44	116.5
2565.92	108
2564.4	114
2562.88	113
2561.36	117.5
2559.84	113
2558.32	116.5
2556.8	109
2555.27	117
2553.75	120
2552.23	111.5
2550.71	121
2549.18	112.5
2547.66	122
2546.13	117.5
2544.61	116.5
2543.08	119
2541.56	113.5
2540.03	120.5
2538.5	113
2536.98	113.5
2535.45	113
2533.92	116
2532.39	115.5
2530.86	120
2529.34	120
2527.81	128.5
2526.28	117.5
2524.75	115
2523.22	127
2521.68	123.5
2520.15	130
2518.62	122
2517.09	113.5
2515.56	124.5
2514.02	122.5
2512.49	131.5
2510.96	130.5
2509.42	127.5
2507.89	131.5
2506.35	131
2504.82	128
2503.28	124.5
2501.75	132
2500.21	141.5
2498.67	126
2497.14	132.5
2495.6	131.5
2494.06	133.5
2492.52	133
2490.99	135
2489.45	135
2487.91	140.5
2486.37	140
2484.83	140.5
2483.29	139.5
2481.75	136.5
2480.2	135.5
2478.66	147
2477.12	139.5
2475.58	144
2474.03	141
2472.49	151
2470.95	151
2469.4	145.5
2467.86	151.5
2466.31	145.5
2464.77	143.5
2463.22	134.5
2461.68	146.5
2460.13	146
2458.58	143
2457.04	147.5
2455.49	139
2453.94	147.5
2452.39	146
2450.84	146
2449.29	148
2447.74	150
2446.2	154.5
2444.64	149.5
2443.09	151
2441.54	148.5
2439.99	146
2438.44	152
2436.89	155
2435.33	153
2433.78	150
2432.23	150
2430.67	157
2429.12	153.5
2427.56	157
2426.01	152
2424.45	154.5
2422.9	167
2421.34	159.5
2419.79	159.5
2418.23	162
2416.67	163
2415.11	163
2413.56	166.5
2412	160.5
2410.44	157.5
2408.88	165
2407.32	167.5
2405.76	165
2404.2	163.5
2402.64	160
2401.08	161
2399.51	162.5
2397.95	155.5
2396.39	152
2394.83	162.5
2393.26	167.5
2391.7	154
2390.13	155.5
2388.57	156
2387.01	156
2385.44	157
2383.87	166
2382.31	166
2380.74	166
2379.18	166
2377.61	170
2376.04	163
2374.47	158.5
2372.9	161
2371.33	165
2369.77	155
2368.2	167
2366.63	157
2365.06	165
2363.48	166.5
2361.91	169
2360.34	170.5
2358.77	166.5
2357.2	167.5
2355.62	169
2354.05	182
2352.48	173.5
2350.9	175.5
2349.33	183
2347.75	188.5
2346.18	186.5
2344.6	184.5
2343.03	202.5
2341.45	195
2339.87	199.5
2338.3	207.5
2336.72	204.5
2335.14	223.5
2333.56	252
2331.98	270
2330.41	292
2328.83	303
2327.25	306.5
2325.67	277
2324.09	253
2322.5	241
2320.92	246.5
2319.34	244.5
2317.76	256.5
2316.18	264.5
2314.59	263.5
2313.01	270
2311.42	288
2309.84	303
2308.26	322.5
2306.67	339.5
2305.08	391
2303.5	413
2301.91	461
2300.33	556
2298.74	609
2297.15	711
2295.56	787.5
2293.98	858.5
2292.39	864
2290.8	862
2289.21	803.5
2287.62	729
2286.03	667
2284.44	615.5
2282.85	588
2281.25	564.5
2279.66	565
2278.07	595.5
2276.48	588
2274.88	616
2273.29	639.5
2271.7	681.5
2270.1	732
2268.51	816
2266.91	906
2265.32	1062
2263.72	1274
2262.12	1557.5
2260.53	1999.5
2258.93	2676.5
2257.33	3886.5
2255.74	5504.5
2254.14	7020
2252.54	7496.5
2250.94	6821
2249.34	5735.5
2247.74	4582
2246.14	3601
2244.54	2794
2242.94	2171.5
2241.34	1683
2239.73	1347
2238.13	1108
2236.53	928
2234.93	794
2233.32	668
2231.72	616.5
2230.11	545
2228.51	525.5
2226.9	467
2225.3	432.5
2223.69	402
2222.09	388
2220.48	365
2218.87	339
2217.26	324.5
2215.66	315
2214.05	309
2212.44	288
2210.83	307
2209.22	302
2207.61	318
2206	335
2204.39	347.5
2202.78	329.5
2201.17	302.5
2199.55	291.5
2197.94	286
2196.33	271
2194.72	259
2193.1	235.5
2191.49	250
2189.87	243
2188.26	235
2186.64	236.5
2185.03	224
2183.41	222
2181.8	227
2180.18	221
2178.56	227.5
2176.94	209
2175.33	212
2173.71	206
2172.09	206
2170.47	203
2168.85	203.5
2167.23	208
2165.61	204
2163.99	202.5
2162.37	200.5
2160.74	212.5
2159.12	196.5
2157.5	205.5
2155.88	200.5
2154.25	200.5
2152.63	215
2151.01	192
2149.38	196
2147.76	206
2146.13	204.5
2144.5	215
2142.88	203
2141.25	207
2139.62	211
2138	212.5
2136.37	201
2134.74	209
2133.11	208
2131.48	213.5
2129.85	203
2128.22	200
2126.59	206
2124.96	209
2123.33	200.5
2121.7	196.5
2120.07	207
2118.44	197.5
2116.8	205
2115.17	205.5
2113.54	202.5
2111.9	208
2110.27	206
2108.63	198.5
2107	203
2105.36	204.5
2103.73	215
2102.09	209.5
2100.45	209
2098.82	211
2097.18	203
2095.54	218
2093.9	207
2092.26	203.5
2090.62	215
2088.98	212
2087.34	216
2085.7	201
2084.06	210
2082.42	213.5
2080.78	219.5
2079.14	206
2077.49	222.5
2075.85	209
2074.21	220
2072.56	215
2070.92	208.5
2069.27	204
2067.63	213
2065.98	209
2064.34	219
2062.69	221
2061.04	203
2059.4	207
2057.75	222.5
2056.1	220.5
2054.45	213
2052.8	211.5
2051.16	221
2049.51	210
2047.86	219
2046.21	218.5
2044.55	221.5
2042.9	229
2041.25	227.5
2039.6	216.5
2037.95	227
2036.29	231.5
2034.64	230.5
2032.99	222.5
2031.33	215
2029.68	218
2028.02	233
2026.37	217
2024.71	234
2023.06	224.5
2021.4	229.5
2019.74	223
2018.08	217
2016.43	206
2014.77	220
2013.11	214.5
2011.45	224
2009.79	225
2008.13	232
2006.47	222.5
2004.81	227.5
2003.15	230.5
2001.49	231
1999.82	235
1998.16	227.5
1996.5	227
1994.84	245
1993.17	236.5
1991.51	230
1989.84	232
1988.18	232
1986.51	238
1984.85	236
1983.18	232.5
1981.51	233
1979.85	228
1978.18	246
1976.51	231.5
1974.84	248.5
1973.18	238.5
1971.51	240
1969.84	236
1968.17	240.5
1966.5	253
1964.83	232
1963.15	238.5
1961.48	243.5
1959.81	247
1958.14	244
1956.47	252.5
1954.79	253
1953.12	250.5
1951.44	247.5
1949.77	259.5
1948.1	257.5
1946.42	256.5
1944.74	251.5
1943.07	260
1941.39	254
1939.71	259
1938.04	244
1936.36	251.5
1934.68	253
1933	262
1931.32	258
1929.64	262
1927.96	257
1926.28	256
1924.6	235
1922.92	250
1921.24	257
1919.56	252
1917.87	264.5
1916.19	271
1914.51	270.5
1912.82	272.5
1911.14	268
1909.46	256
1907.77	274.5
1906.09	262.5
1904.4	262.5
1902.71	259.5
1901.03	263
1899.34	266.5
1897.65	269
1895.96	279
1894.28	264.5
1892.59	278.5
1890.9	279
1889.21	272.5
1887.52	272
1885.83	270.5
1884.14	281
1882.45	277.5
1880.75	277
1879.06	273
1877.37	279
1875.68	271.5
1873.98	273.5
1872.29	284.5
1870.59	274.5
1868.9	279
1867.2	282.5
1865.51	278
1863.81	289.5
1862.12	280
1860.42	273
1858.72	271.5
1857.02	299.5
1855.33	294
1853.63	285.5
1851.93	293
1850.23	300
1848.53	291.5
1846.83	278
1845.13	291.5
1843.43	293
1841.73	302.5
1840.02	308
1838.32	309
1836.62	302
1834.92	305
1833.21	324.5
1831.51	304
1829.8	304.5
1828.1	327.5
1826.39	326.5
1824.69	324
1822.98	323
1821.28	306
1819.57	306.5
1817.86	313
1816.15	303
1814.45	298.5
1812.74	308.5
1811.03	314
1809.32	304.5
1807.61	310
1805.9	311.5
1804.19	307
1802.48	313.5
1800.76	303
1799.05	314
1797.34	306.5
1795.63	313
1793.91	309.5
1792.2	304.5
1790.48	312.5
1788.77	308
1787.05	312
1785.34	311.5
1783.62	312
1781.91	317
1780.19	322.5
1778.47	318
1776.76	317
1775.04	324
1773.32	321
1771.6	323.5
1769.88	316
1768.16	331.5
1766.44	326
1764.72	328
1763	325.5
1761.28	325
1759.56	327
1757.83	336
1756.11	326
1754.39	333
1752.66	339
1750.94	330.5
1749.21	325.5
1747.49	326.5
1745.76	330.5
1744.04	331.5
1742.31	333
1740.59	334
1738.86	333
1737.13	337
1735.4	338.5
1733.68	330.5
1731.95	337.5
1730.22	342.5
1728.49	335
1726.76	335
1725.03	342
1723.3	354
1721.56	339
1719.83	339
1718.1	349
1716.37	337
1714.63	340
1712.9	344.5
1711.17	347.5
1709.43	343.5
1707.7	329.5
1705.96	339
1704.23	346
1702.49	334
1700.75	344.5
1699.02	349.5
1697.28	338.5
1695.54	338
1693.8	347
1692.07	344
1690.33	342.5
1688.59	336.5
1686.85	346
1685.11	347.5
1683.37	345.5
1681.62	342.5
1679.88	348
1678.14	357
1676.4	358.5
1674.65	343.5
1672.91	346.5
1671.17	344.5
1669.42	367
1667.68	344
1665.93	351.5
1664.19	347.5
1662.44	340.5
1660.69	341.5
1658.95	355
1657.2	351.5
1655.45	371.5
1653.7	359.5
1651.96	364
1650.21	354
1648.46	365
1646.71	375.5
1644.96	360.5
1643.21	364
1641.45	352.5
1639.7	372.5
1637.95	374.5
1636.2	376
1634.45	371
1632.69	378
1630.94	369
1629.18	381
1627.43	373.5
1625.67	393.5
1623.92	371
1622.16	386
1620.41	393.5
1618.65	404.5
1616.89	414
1615.13	415
1613.37	421
1611.62	411.5
1609.86	420.5
1608.1	424
1606.34	444
1604.58	420.5
1602.82	421
1601.05	425.5
1599.29	429
1597.53	422
1595.77	430.5
1594.01	428
1592.24	429.5
1590.48	427
1588.71	448.5
1586.95	444
1585.18	457
1583.42	439
1581.65	460.5
1579.88	451
1578.12	454.5
1576.35	454
1574.58	458
1572.81	447.5
1571.05	463
1569.28	474.5
1567.51	473
1565.74	463
1563.97	471
1562.19	480
1560.42	496
1558.65	516.5
1556.88	522
1555.11	555
1553.33	581
1551.56	542.5
1549.79	530
1548.01	531
1546.24	533.5
1544.46	531.5
1542.69	547.5
1540.91	530
1539.13	565
1537.36	549.5
1535.58	568
1533.8	553
1532.02	578.5
1530.24	566.5
1528.46	565.5
1526.68	561.5
1524.9	575
1523.12	584
1521.34	565.5
1519.56	581.5
1517.78	588
1516	584
1514.21	588
1512.43	603
1510.65	606
1508.86	597.5
1507.08	597
1505.29	621.5
1503.51	615
1501.72	641.5
1499.93	623.5
1498.15	650.5
1496.36	644
1494.57	655
1492.78	674.5
1491	661.5
1489.21	669
1487.42	691
1485.63	667.5
1483.84	723
1482.05	708.5
1480.25	729
1478.46	730.5
1476.67	752.5
1474.88	767
1473.09	775.5
1471.29	810
1469.5	831.5
1467.7	861
1465.91	878
1464.11	908
1462.32	913
1460.52	967
1458.72	1000.5
1456.93	1027
1455.13	1045.5
1453.33	1048
1451.53	1084
1449.74	1067
1447.94	1106
1446.14	1116.5
1444.34	1112
1442.54	1134.5
1440.73	1108
1438.93	1097
1437.13	1097.5
1435.33	1080.5
1433.53	1062.5
1431.72	1060
1429.92	1047.5
1428.11	1060.5
1426.31	1048.5
1424.51	1069
1422.7	1050
1420.89	1074
1419.09	1069
1417.28	1052
1415.47	1068
1413.66	1072.5
1411.86	1044
1410.05	1065.5
1408.24	1071
1406.43	1058.5
1404.62	1070.5
1402.81	1038.5
1401	1065.5
1399.19	1058.5
1397.38	1036
1395.56	1055.5
1393.75	1060
1391.94	1073
1390.12	1088.5
1388.31	1109.5
1386.49	1181.5
1384.68	1258
1382.87	1351
1381.05	1493
1379.23	1649
1377.42	1843
1375.6	2015.5
1373.78	2085
1371.96	2011
1370.14	1823.5
1368.33	1591
1366.51	1362.5
1364.69	1240
1362.87	1104.5
1361.05	1015.5
1359.22	927.5
1357.4	889.5
1355.58	847
1353.76	804.5
1351.93	783
